File: data/20221005_111011_SS_2_2_1_xrd_test_1_1.dat
# UNIX time, Current (A), PS Voltage (V), REF Voltage (V)
# SAMPLE_SURFACE = 2.83
# SAMPLE_NAME = SS_2_2_1_xrd_test_1
# COATING_STEP = 1
1.66497e+09	-0.000000000000000000e+00	0.001
1.66497e+09	-0.000000000000000000e+00	0.000000000000000000e+00
1.66497e+09	-0.000000000000000000e+00	0.001
1.66497e+09	-0.000000000000000000e+00	0.000000000000000000e+00
1.66497e+09	-0.000000000000000000e+00	0.001
1.66497e+09	-0.000000000000000000e+00	0.001
1.66497e+09	-0.000000000000000000e+00	0.001
1.66497e+09	-0.000000000000000000e+00	2.002
1.66497e+09	-0.000000000000000000e+00	2.001
1.66497e+09	-0.000000000000000000e+00	2.002
1.66497e+09	-0.000000000000000000e+00	2.001
1.66497e+09	-0.000000000000000000e+00	2.002
1.66497e+09	-0.000000000000000000e+00	2.001
1.66497e+09	-0.000000000000000000e+00	2.002
1.66497e+09	-0.000000000000000000e+00	2.001
1.66497e+09	-0.000000000000000000e+00	2.002
1.66497e+09	-0.000000000000000000e+00	2.001
1.66497e+09	-0.000000000000000000e+00	2.001
1.66497e+09	-0.000000000000000000e+00	2.001
1.66497e+09	-0.000000000000000000e+00	2.001
1.66497e+09	-0.000000000000000000e+00	2.002
1.66497e+09	-0.000000000000000000e+00	2.002
1.66497e+09	-0.000000000000000000e+00	2.002
1.66497e+09	-0.000000000000000000e+00	2.002
1.66497e+09	-0.000000000000000000e+00	2.001
1.66497e+09	-0.000000000000000000e+00	2.001
1.66497e+09	-0.000000000000000000e+00	2.001
1.66497e+09	-0.000000000000000000e+00	2.001
1.66497e+09	-0.000000000000000000e+00	2.002
1.66497e+09	-0.000000000000000000e+00	2.001
1.66497e+09	-0.000000000000000000e+00	2.002
1.66497e+09	-0.000000000000000000e+00	2.001
1.66497e+09	-0.000000000000000000e+00	2.002
1.66497e+09	-0.000000000000000000e+00	2.001
1.66497e+09	-0.000000000000000000e+00	2.002
1.66497e+09	-0.000000000000000000e+00	2.002
1.66497e+09	-0.000000000000000000e+00	2.002
1.66497e+09	-0.000000000000000000e+00	2.002
1.66497e+09	-0.000000000000000000e+00	2.002
1.66497e+09	-0.000000000000000000e+00	2.002
1.66497e+09	-0.000000000000000000e+00	2.001
1.66497e+09	-0.000000000000000000e+00	2.002
1.66497e+09	-0.000000000000000000e+00	2.001
1.66497e+09	-0.000000000000000000e+00	2.002
1.66497e+09	-0.000000000000000000e+00	2.001
1.66497e+09	-0.000000000000000000e+00	2.002
1.66497e+09	-0.000000000000000000e+00	2.002
1.66497e+09	-0.000000000000000000e+00	2.002
1.66497e+09	-0.000000000000000000e+00	2.002
1.66497e+09	-0.000000000000000000e+00	2.002
1.66497e+09	-0.000000000000000000e+00	2.002
1.66497e+09	-0.000000000000000000e+00	2.002
1.66497e+09	-0.000000000000000000e+00	2.002
1.66497e+09	-0.000000000000000000e+00	2.001
1.66497e+09	-0.000000000000000000e+00	2.001
1.66497e+09	-0.000000000000000000e+00	2.001
1.66497e+09	-0.000000000000000000e+00	2.001
1.66497e+09	-0.000000000000000000e+00	2.001
1.66497e+09	-0.000000000000000000e+00	2.001
1.66497e+09	-0.000000000000000000e+00	2.002
1.66497e+09	-0.000000000000000000e+00	2.002
1.66497e+09	0.142	1.249
1.66497e+09	0.143	1.218
1.66497e+09	0.142	1.22
1.66497e+09	0.142	1.226
1.66497e+09	0.142	1.233
1.66497e+09	0.143	1.229
1.66497e+09	0.142	1.263
1.66497e+09	0.142	1.27
1.66497e+09	0.142	1.298
1.66497e+09	0.143	1.279
1.66497e+09	0.143	1.296
1.66497e+09	0.143	0.937
1.66497e+09	0.143	0.929
1.66497e+09	0.143	0.93
1.66497e+09	0.142	0.916
1.66497e+09	0.142	0.921
1.66497e+09	0.143	0.925
1.66497e+09	0.143	0.915
1.66497e+09	0.143	0.916
1.66497e+09	0.143	0.915
1.66497e+09	0.143	0.902
1.66497e+09	0.143	0.895
1.66497e+09	0.143	0.897
1.66497e+09	0.029	0.257
1.66497e+09	0.029	0.17
1.66497e+09	0.031	0.169
1.66497e+09	0.029	0.17
1.66497e+09	0.03	0.17
1.66497e+09	0.029	0.157
1.66497e+09	0.031	0.155
1.66497e+09	0.03	0.154
1.66497e+09	0.031	0.163
1.66497e+09	0.03	0.171
1.66497e+09	0.031	0.165
1.66497e+09	0.03	0.161
1.66497e+09	0.03	0.17
1.66497e+09	0.029	0.176
1.66497e+09	0.031	0.175
1.66497e+09	0.031	0.177
1.66497e+09	0.03	0.192
1.66497e+09	0.03	0.191
1.66497e+09	0.029	0.171
1.66497e+09	0.029	0.181
1.66497e+09	0.03	0.183
1.66497e+09	0.031	0.189
1.66497e+09	0.03	0.191
1.66497e+09	0.03	0.194
1.66497e+09	0.03	0.192
1.66497e+09	0.029	0.181
1.66497e+09	0.03	0.18
1.66497e+09	0.031	0.183
1.66497e+09	0.03	0.191
1.66497e+09	0.031	0.192
1.66497e+09	0.029	0.192
1.66497e+09	0.029	0.191
1.66497e+09	0.029	0.191
1.66497e+09	0.03	0.19
1.66497e+09	0.03	0.189
1.66497e+09	0.03	0.192
1.66497e+09	0.031	0.192
1.66497e+09	0.03	0.184
1.66497e+09	0.031	0.183
1.66497e+09	0.031	0.18
1.66497e+09	0.03	0.18
1.66497e+09	0.03	0.181
1.66497e+09	0.03	0.187
1.66497e+09	0.03	0.186
1.66497e+09	-0.000000000000000000e+00	0.014
1.66497e+09	-0.000000000000000000e+00	0.011
1.66497e+09	-0.000000000000000000e+00	0.009
1.66497e+09	-0.000000000000000000e+00	0.006
1.66497e+09	-0.000000000000000000e+00	0.001
1.66497e+09	-0.000000000000000000e+00	0.001
1.66497e+09	-0.000000000000000000e+00	0.001
1.66497e+09	-0.000000000000000000e+00	0.001
1.66497e+09	-0.000000000000000000e+00	0.001
1.66497e+09	-0.000000000000000000e+00	0.001
1.66497e+09	-0.000000000000000000e+00	0.001
1.66497e+09	-0.000000000000000000e+00	0.001
1.66497e+09	-0.000000000000000000e+00	0.001
1.66497e+09	-0.000000000000000000e+00	0.001
1.66497e+09	-0.000000000000000000e+00	0.001
1.66497e+09	-0.000000000000000000e+00	0.001
1.66497e+09	-0.000000000000000000e+00	0.001
1.66497e+09	-0.000000000000000000e+00	0.001
1.66497e+09	-0.000000000000000000e+00	0.002
1.66497e+09	-0.000000000000000000e+00	0.001
1.66497e+09	-0.000000000000000000e+00	0.001
1.66497e+09	-0.000000000000000000e+00	0.001
1.66497e+09	-0.000000000000000000e+00	0.001
1.66497e+09	-0.000000000000000000e+00	0.001
1.66497e+09	-0.000000000000000000e+00	0.001
1.66497e+09	-0.000000000000000000e+00	0.001
1.66497e+09	-0.000000000000000000e+00	0.001
1.66497e+09	-0.000000000000000000e+00	0.001
1.66497e+09	-0.000000000000000000e+00	0.001
1.66497e+09	-0.000000000000000000e+00	0.001
1.66497e+09	-0.000000000000000000e+00	0.001
1.66497e+09	-0.000000000000000000e+00	0.002
1.66497e+09	-0.000000000000000000e+00	0.001
1.66497e+09	-0.000000000000000000e+00	0.001
1.66497e+09	-0.000000000000000000e+00	0.001
1.66497e+09	-0.000000000000000000e+00	0.001
1.66497e+09	-0.000000000000000000e+00	0.001
1.66497e+09	-0.000000000000000000e+00	0.001
1.66497e+09	-0.000000000000000000e+00	0.001
1.66497e+09	-0.000000000000000000e+00	0.002
1.66497e+09	-0.000000000000000000e+00	0.001
1.66497e+09	-0.000000000000000000e+00	0.001
1.66497e+09	-0.000000000000000000e+00	0.001
1.66497e+09	-0.000000000000000000e+00	0.001
1.66497e+09	-0.000000000000000000e+00	0.001
1.66497e+09	-0.000000000000000000e+00	0.001
1.66497e+09	-0.000000000000000000e+00	0.001
1.66497e+09	-0.000000000000000000e+00	0.001
1.66497e+09	-0.000000000000000000e+00	0.001
1.66497e+09	-0.000000000000000000e+00	0.001
1.66497e+09	-0.000000000000000000e+00	0.001
1.66497e+09	-0.000000000000000000e+00	0.002
1.66497e+09	-0.000000000000000000e+00	0.001
1.66497e+09	-0.000000000000000000e+00	0.001
1.66497e+09	-0.000000000000000000e+00	0.001
1.66497e+09	-0.000000000000000000e+00	0.001
1.66497e+09	-0.000000000000000000e+00	0.001
1.66497e+09	-0.000000000000000000e+00	0.001
1.66497e+09	-0.000000000000000000e+00	0.001
1.66497e+09	-0.000000000000000000e+00	0.001
1.66497e+09	-0.000000000000000000e+00	0.001
1.66497e+09	-0.000000000000000000e+00	0.001
1.66497e+09	-0.000000000000000000e+00	0.001
1.66497e+09	-0.000000000000000000e+00	0.001
1.66497e+09	-0.000000000000000000e+00	0.001
1.66497e+09	-0.000000000000000000e+00	0.002
1.66497e+09	-0.000000000000000000e+00	0.001
1.66497e+09	-0.000000000000000000e+00	0.001
1.66497e+09	-0.000000000000000000e+00	0.001
1.66497e+09	-0.000000000000000000e+00	0.001
1.66497e+09	-0.000000000000000000e+00	0.001
1.66497e+09	-0.000000000000000000e+00	0.001
1.66497e+09	-0.000000000000000000e+00	0.001
1.66497e+09	-0.000000000000000000e+00	0.001
1.66497e+09	-0.000000000000000000e+00	0.001
1.66497e+09	-0.000000000000000000e+00	0.002
1.66497e+09	-0.000000000000000000e+00	0.001
1.66497e+09	-0.000000000000000000e+00	0.001
1.66497e+09	-0.000000000000000000e+00	0.001
1.66497e+09	-0.000000000000000000e+00	0.001
1.66497e+09	-0.000000000000000000e+00	0.002
1.66497e+09	-0.000000000000000000e+00	0.001
1.66497e+09	-0.000000000000000000e+00	0.001
1.66497e+09	-0.000000000000000000e+00	0.001
1.66497e+09	-0.000000000000000000e+00	0.001
1.66497e+09	-0.000000000000000000e+00	0.001
1.66497e+09	-0.000000000000000000e+00	0.001
1.66497e+09	-0.000000000000000000e+00	0.001
1.66497e+09	-0.000000000000000000e+00	0.001
1.66497e+09	-0.000000000000000000e+00	0.001
1.66497e+09	-0.000000000000000000e+00	0.001
1.66497e+09	-0.000000000000000000e+00	0.001
1.66497e+09	-0.000000000000000000e+00	0.001
1.66497e+09	-0.000000000000000000e+00	0.001
1.66497e+09	-0.000000000000000000e+00	0.002
1.66497e+09	-0.000000000000000000e+00	0.001
1.66497e+09	-0.000000000000000000e+00	0.002
1.66497e+09	-0.000000000000000000e+00	0.001
1.66497e+09	-0.000000000000000000e+00	0.001
1.66497e+09	-0.000000000000000000e+00	0.001
1.66497e+09	-0.000000000000000000e+00	0.001
1.66497e+09	-0.000000000000000000e+00	0.001
1.66497e+09	-0.000000000000000000e+00	0.001
1.66497e+09	-0.000000000000000000e+00	0.001
1.66497e+09	-0.000000000000000000e+00	0.001
1.66497e+09	-0.000000000000000000e+00	0.001
1.66497e+09	-0.000000000000000000e+00	0.001
1.66497e+09	-0.000000000000000000e+00	0.001
1.66497e+09	-0.000000000000000000e+00	0.001
1.66497e+09	-0.000000000000000000e+00	0.001
1.66497e+09	-0.000000000000000000e+00	0.001